Sample,Time(ms),A0(V),A1(V),A2(V),A3(V)
1,2,0.792,0.000,0.000,0.000
2,4,0.797,0.000,0.000,0.000
3,6,0.792,0.000,0.000,0.000
4,8,0.797,0.000,0.000,0.000
5,10,0.792,0.000,0.000,0.000
6,12,0.792,0.000,0.000,0.000
7,14,0.792,0.000,0.000,0.000
8,17,0.787,0.000,0.000,0.000
9,20,0.792,0.000,0.000,0.000
10,23,0.792,0.000,0.000,0.000
11,25,0.787,0.000,0.000,0.000
12,28,0.792,0.000,0.000,0.000
13,30,0.782,0.000,0.000,0.000
14,33,0.792,0.000,0.000,0.000
15,36,0.797,0.000,0.000,0.000
16,38,0.787,0.000,0.000,0.000
17,41,0.787,0.000,0.000,0.000
18,43,0.787,0.000,0.000,0.000
19,46,0.777,0.000,0.000,0.000
20,48,0.787,0.000,0.000,0.000
21,51,0.792,0.000,0.000,0.000
22,54,0.787,0.000,0.000,0.000
23,56,0.782,0.000,0.000,0.000
24,59,0.777,0.000,0.000,0.000
25,62,0.787,0.000,0.000,0.000
26,65,0.787,0.000,0.000,0.000
27,68,0.777,0.000,0.000,0.000
28,70,0.787,0.000,0.000,0.000
29,73,0.782,0.000,0.000,0.000
30,75,0.777,0.000,0.000,0.000
31,78,0.787,0.000,0.000,0.000
32,80,0.787,0.000,0.000,0.000
33,83,0.787,0.000,0.000,0.000
34,86,0.782,0.000,0.000,0.000
35,88,0.777,0.000,0.000,0.000
36,91,0.787,0.000,0.000,0.000
37,93,0.787,0.000,0.000,0.000
38,96,0.777,0.000,0.000,0.000
39,98,0.787,0.000,0.000,0.000
40,101,0.787,0.000,0.000,0.000
41,105,0.777,0.000,0.000,0.000
42,107,0.777,0.000,0.000,0.000
43,110,0.777,0.000,0.000,0.000
44,113,0.787,0.000,0.000,0.000
45,115,0.782,0.000,0.000,0.000
46,118,0.782,0.000,0.000,0.000
47,121,0.782,0.000,0.000,0.000
48,123,0.782,0.000,0.000,0.000
49,126,0.772,0.000,0.000,0.000
50,129,0.777,0.000,0.000,0.000
51,131,0.777,0.000,0.000,0.000
52,134,0.777,0.000,0.000,0.000
53,136,0.782,0.000,0.000,0.000
54,139,0.777,0.000,0.000,0.000
55,142,0.777,0.000,0.000,0.000
56,144,0.777,0.000,0.000,0.000
57,148,0.777,0.000,0.000,0.000
58,151,0.772,0.000,0.000,0.000
59,153,0.777,0.000,0.000,0.000
60,156,0.777,0.000,0.000,0.000
61,159,0.777,0.000,0.000,0.000
62,161,0.777,0.000,0.000,0.000
63,164,0.777,0.000,0.000,0.000
64,167,0.772,0.000,0.000,0.000
65,169,0.777,0.000,0.000,0.000
66,172,0.777,0.000,0.000,0.000
67,175,0.772,0.000,0.000,0.000
68,177,0.777,0.000,0.000,0.000
69,180,0.777,0.000,0.000,0.000
70,183,0.777,0.000,0.000,0.000
71,185,0.777,0.000,0.000,0.000
72,188,0.777,0.000,0.000,0.000
73,192,0.777,0.000,0.000,0.000
74,194,0.777,0.000,0.000,0.000
75,197,0.772,0.000,0.000,0.000
76,200,0.777,0.000,0.000,0.000
77,202,0.777,0.000,0.000,0.000
78,205,0.767,0.000,0.000,0.000
79,208,0.772,0.000,0.000,0.000
80,210,0.772,0.000,0.000,0.000
81,213,0.767,0.000,0.000,0.000
82,216,0.777,0.000,0.000,0.000
83,218,0.777,0.000,0.000,0.000
84,221,0.772,0.000,0.000,0.000
85,223,0.772,0.000,0.000,0.000
86,226,0.772,0.000,0.000,0.000
87,229,0.762,0.000,0.000,0.000
88,231,0.772,0.000,0.000,0.000
89,235,0.772,0.000,0.000,0.000
90,238,0.767,0.000,0.000,0.000
91,240,0.777,0.000,0.000,0.000
92,243,0.772,0.000,0.000,0.000
93,246,0.762,0.000,0.000,0.000
94,248,0.772,0.000,0.000,0.000
95,251,0.772,0.000,0.000,0.000
96,254,0.772,0.000,0.000,0.000
97,256,0.772,0.000,0.000,0.000
98,259,0.772,0.000,0.000,0.000
99,262,0.772,0.000,0.000,0.000
100,264,0.767,0.000,0.000,0.000
101,267,0.767,0.000,0.000,0.000
102,270,0.767,0.000,0.000,0.000
103,273,0.772,0.000,0.000,0.000
104,276,0.772,0.000,0.000,0.000
105,279,0.772,0.000,0.000,0.000
106,282,0.772,0.000,0.000,0.000
107,285,0.762,0.000,0.000,0.000
108,287,0.762,0.000,0.000,0.000
109,290,0.767,0.000,0.000,0.000
110,293,0.772,0.000,0.000,0.000
111,295,0.762,0.000,0.000,0.000
112,298,0.772,0.000,0.000,0.000
113,301,0.767,0.000,0.000,0.000
114,304,0.762,0.000,0.000,0.000
115,306,0.762,0.000,0.000,0.000
116,309,0.762,0.000,0.000,0.000
117,312,0.762,0.000,0.000,0.000
118,315,0.767,0.000,0.000,0.000
119,318,0.762,0.000,0.000,0.000
120,321,0.758,0.000,0.000,0.000
121,324,0.762,0.000,0.000,0.000
122,327,0.762,0.000,0.000,0.000
123,329,0.753,0.000,0.000,0.000
124,332,0.762,0.000,0.000,0.000
125,335,0.762,0.000,0.000,0.000
126,338,0.758,0.000,0.000,0.000
127,340,0.762,0.000,0.000,0.000
128,343,0.762,0.000,0.000,0.000
129,346,0.753,0.000,0.000,0.000
130,349,0.758,0.000,0.000,0.000
131,351,0.758,0.000,0.000,0.000
132,354,0.758,0.000,0.000,0.000
133,357,0.762,0.000,0.000,0.000
134,359,0.762,0.000,0.000,0.000
135,363,0.758,0.000,0.000,0.000
136,366,0.758,0.000,0.000,0.000
137,369,0.758,0.000,0.000,0.000
138,371,0.748,0.000,0.000,0.000
139,374,0.762,0.000,0.000,0.000
140,377,0.762,0.000,0.000,0.000
141,380,0.753,0.000,0.000,0.000
142,382,0.758,0.000,0.000,0.000
143,385,0.758,0.000,0.000,0.000
144,388,0.748,0.000,0.000,0.000
145,391,0.758,0.000,0.000,0.000
146,393,0.758,0.000,0.000,0.000
147,396,0.758,0.000,0.000,0.000
148,399,0.762,0.000,0.000,0.000
149,402,0.758,0.000,0.000,0.000
150,405,0.753,0.000,0.000,0.000
151,408,0.753,0.000,0.000,0.000
152,411,0.753,0.000,0.000,0.000
153,414,0.758,0.000,0.000,0.000
154,416,0.758,0.000,0.000,0.000
155,419,0.758,0.000,0.000,0.000
156,422,0.758,0.000,0.000,0.000
157,424,0.748,0.000,0.000,0.000
158,427,0.748,0.000,0.000,0.000
159,430,0.758,0.000,0.000,0.000
160,433,0.743,0.000,0.000,0.000
161,435,0.753,0.000,0.000,0.000
162,438,0.758,0.000,0.000,0.000
163,441,0.743,0.000,0.000,0.000
164,444,0.758,0.000,0.000,0.000
165,447,0.748,0.000,0.000,0.000
166,450,0.743,0.000,0.000,0.000
167,453,0.758,0.000,0.000,0.000
168,456,0.753,0.000,0.000,0.000
169,458,0.743,0.000,0.000,0.000
170,461,0.758,0.000,0.000,0.000
171,464,0.748,0.000,0.000,0.000
172,467,0.743,0.000,0.000,0.000
173,469,0.748,0.000,0.000,0.000
174,472,0.753,0.000,0.000,0.000
175,475,0.743,0.000,0.000,0.000
176,478,0.753,0.000,0.000,0.000
177,480,0.748,0.000,0.000,0.000
178,483,0.743,0.000,0.000,0.000
179,486,0.748,0.000,0.000,0.000
180,489,0.748,0.000,0.000,0.000
181,492,0.743,0.000,0.000,0.000
182,495,0.753,0.000,0.000,0.000
183,498,0.748,0.000,0.000,0.000
184,500,0.743,0.000,0.000,0.000
185,503,0.748,0.000,0.000,0.000
186,506,0.748,0.000,0.000,0.000
187,509,0.743,0.000,0.000,0.000
188,511,0.748,0.000,0.000,0.000
189,514,0.748,0.000,0.000,0.000
190,517,0.748,0.000,0.000,0.000
191,520,0.748,0.000,0.000,0.000
192,522,0.748,0.000,0.000,0.000
193,525,0.748,0.000,0.000,0.000
194,528,0.748,0.000,0.000,0.000
195,532,0.748,0.000,0.000,0.000
196,534,0.748,0.000,0.000,0.000
197,537,0.748,0.000,0.000,0.000
198,540,0.748,0.000,0.000,0.000
199,543,0.748,0.000,0.000,0.000
200,545,0.743,0.000,0.000,0.000
201,548,0.748,0.000,0.000,0.000
202,551,0.748,0.000,0.000,0.000
203,553,0.743,0.000,0.000,0.000
204,556,0.753,0.000,0.000,0.000
205,559,0.753,0.000,0.000,0.000
206,562,0.743,0.000,0.000,0.000
207,564,0.748,0.000,0.000,0.000
208,567,0.748,0.000,0.000,0.000
209,570,0.743,0.000,0.000,0.000
210,574,0.758,0.000,0.000,0.000
211,576,0.748,0.000,0.000,0.000
212,579,0.743,0.000,0.000,0.000
213,582,0.758,0.000,0.000,0.000
214,585,0.748,0.000,0.000,0.000
215,587,0.743,0.000,0.000,0.000
216,590,0.753,0.000,0.000,0.000
217,593,0.748,0.000,0.000,0.000
218,596,0.743,0.000,0.000,0.000
219,598,0.753,0.000,0.000,0.000
220,601,0.748,0.000,0.000,0.000
221,604,0.743,0.000,0.000,0.000
222,607,0.748,0.000,0.000,0.000
223,609,0.748,0.000,0.000,0.000
224,612,0.748,0.000,0.000,0.000
225,615,0.758,0.000,0.000,0.000
226,618,0.758,0.000,0.000,0.000
227,621,0.748,0.000,0.000,0.000
228,624,0.758,0.000,0.000,0.000
229,627,0.753,0.000,0.000,0.000
230,629,0.743,0.000,0.000,0.000
231,632,0.758,0.000,0.000,0.000
232,635,0.758,0.000,0.000,0.000
233,638,0.753,0.000,0.000,0.000
234,640,0.758,0.000,0.000,0.000
235,643,0.758,0.000,0.000,0.000
236,646,0.748,0.000,0.000,0.000
237,649,0.758,0.000,0.000,0.000
238,651,0.758,0.000,0.000,0.000
239,654,0.758,0.000,0.000,0.000
240,657,0.758,0.000,0.000,0.000
241,661,0.758,0.000,0.000,0.000
242,663,0.758,0.000,0.000,0.000
243,666,0.758,0.000,0.000,0.000
244,669,0.758,0.000,0.000,0.000
245,672,0.758,0.000,0.000,0.000
246,674,0.748,0.000,0.000,0.000
247,677,0.762,0.000,0.000,0.000
248,680,0.762,0.000,0.000,0.000
249,682,0.748,0.000,0.000,0.000
250,685,0.762,0.000,0.000,0.000
251,688,0.762,0.000,0.000,0.000
252,691,0.748,0.000,0.000,0.000
253,693,0.762,0.000,0.000,0.000
254,696,0.762,0.000,0.000,0.000
255,699,0.758,0.000,0.000,0.000
256,703,0.762,0.000,0.000,0.000
257,705,0.762,0.000,0.000,0.000
258,708,0.758,0.000,0.000,0.000
259,711,0.762,0.000,0.000,0.000
260,714,0.762,0.000,0.000,0.000
261,716,0.758,0.000,0.000,0.000
262,719,0.762,0.000,0.000,0.000
263,722,0.762,0.000,0.000,0.000
264,725,0.758,0.000,0.000,0.000
265,727,0.762,0.000,0.000,0.000
266,730,0.762,0.000,0.000,0.000
267,733,0.762,0.000,0.000,0.000
268,736,0.767,0.000,0.000,0.000
269,738,0.762,0.000,0.000,0.000
270,741,0.762,0.000,0.000,0.000
271,745,0.762,0.000,0.000,0.000
272,747,0.762,0.000,0.000,0.000
273,750,0.762,0.000,0.000,0.000
274,753,0.767,0.000,0.000,0.000
275,756,0.772,0.000,0.000,0.000
276,758,0.762,0.000,0.000,0.000
277,761,0.772,0.000,0.000,0.000
278,764,0.772,0.000,0.000,0.000
279,767,0.762,0.000,0.000,0.000
280,769,0.767,0.000,0.000,0.000
281,772,0.772,0.000,0.000,0.000
282,775,0.777,0.000,0.000,0.000
283,778,0.777,0.000,0.000,0.000
284,780,0.772,0.000,0.000,0.000
285,783,0.772,0.000,0.000,0.000
286,786,0.772,0.000,0.000,0.000
287,790,0.777,0.000,0.000,0.000
288,792,0.772,0.000,0.000,0.000
289,795,0.777,0.000,0.000,0.000
290,798,0.777,0.000,0.000,0.000
291,801,0.777,0.000,0.000,0.000
292,803,0.767,0.000,0.000,0.000
293,806,0.777,0.000,0.000,0.000
294,809,0.777,0.000,0.000,0.000
295,811,0.767,0.000,0.000,0.000
296,814,0.777,0.000,0.000,0.000
297,817,0.777,0.000,0.000,0.000
298,820,0.772,0.000,0.000,0.000
299,822,0.777,0.000,0.000,0.000
300,825,0.777,0.000,0.000,0.000
301,828,0.772,0.000,0.000,0.000
302,832,0.777,0.000,0.000,0.000
303,834,0.777,0.000,0.000,0.000
304,837,0.777,0.000,0.000,0.000
305,840,0.782,0.000,0.000,0.000
306,843,0.782,0.000,0.000,0.000
307,845,0.777,0.000,0.000,0.000
308,848,0.787,0.000,0.000,0.000
309,851,0.787,0.000,0.000,0.000
310,854,0.777,0.000,0.000,0.000
311,856,0.787,0.000,0.000,0.000
312,859,0.787,0.000,0.000,0.000
313,862,0.777,0.000,0.000,0.000
314,865,0.787,0.000,0.000,0.000
315,867,0.792,0.000,0.000,0.000
316,870,0.782,0.000,0.000,0.000
317,874,0.792,0.000,0.000,0.000
318,876,0.797,0.000,0.000,0.000
319,879,0.787,0.000,0.000,0.000
320,882,0.792,0.000,0.000,0.000
321,885,0.792,0.000,0.000,0.000
322,887,0.787,0.000,0.000,0.000
323,890,0.797,0.000,0.000,0.000
324,893,0.797,0.000,0.000,0.000
325,896,0.792,0.000,0.000,0.000
326,898,0.797,0.000,0.000,0.000
327,901,0.797,0.000,0.000,0.000
328,904,0.797,0.000,0.000,0.000
329,907,0.797,0.000,0.000,0.000
330,909,0.802,0.000,0.000,0.000
331,912,0.802,0.000,0.000,0.000
332,916,0.806,0.000,0.000,0.000
333,919,0.806,0.000,0.000,0.000
334,921,0.806,0.000,0.000,0.000
335,924,0.797,0.000,0.000,0.000
336,927,0.806,0.000,0.000,0.000
337,930,0.811,0.000,0.000,0.000
338,932,0.802,0.000,0.000,0.000
339,935,0.816,0.000,0.000,0.000
340,938,0.816,0.000,0.000,0.000
341,940,0.806,0.000,0.000,0.000
342,943,0.816,0.000,0.000,0.000
343,946,0.816,0.000,0.000,0.000
344,949,0.811,0.000,0.000,0.000
345,951,0.816,0.000,0.000,0.000
346,954,0.816,0.000,0.000,0.000
347,958,0.816,0.000,0.000,0.000
348,961,0.816,0.000,0.000,0.000
349,963,0.816,0.000,0.000,0.000
350,966,0.816,0.000,0.000,0.000
351,969,0.821,0.000,0.000,0.000
352,972,0.826,0.000,0.000,0.000
353,974,0.816,0.000,0.000,0.000
354,977,0.826,0.000,0.000,0.000
355,980,0.831,0.000,0.000,0.000
356,983,0.816,0.000,0.000,0.000
357,985,0.831,0.000,0.000,0.000
358,988,0.836,0.000,0.000,0.000
359,991,0.826,0.000,0.000,0.000
360,994,0.836,0.000,0.000,0.000
361,996,0.841,0.000,0.000,0.000
362,999,0.836,0.000,0.000,0.000
363,1003,0.841,0.000,0.000,0.000
364,1006,0.841,0.000,0.000,0.000
365,1008,0.841,0.000,0.000,0.000
366,1011,0.846,0.000,0.000,0.000
367,1014,0.841,0.000,0.000,0.000
368,1017,0.846,0.000,0.000,0.000
369,1020,0.841,0.000,0.000,0.000
370,1023,0.855,0.000,0.000,0.000
371,1025,0.850,0.000,0.000,0.000
372,1028,0.850,0.000,0.000,0.000
373,1031,0.855,0.000,0.000,0.000
374,1034,0.855,0.000,0.000,0.000
375,1037,0.850,0.000,0.000,0.000
376,1039,0.860,0.000,0.000,0.000
377,1042,0.860,0.000,0.000,0.000
378,1046,0.855,0.000,0.000,0.000
379,1049,0.860,0.000,0.000,0.000
380,1052,0.865,0.000,0.000,0.000
381,1055,0.865,0.000,0.000,0.000
382,1057,0.865,0.000,0.000,0.000
383,1060,0.870,0.000,0.000,0.000
384,1063,0.870,0.000,0.000,0.000
385,1066,0.865,0.000,0.000,0.000
386,1069,0.875,0.000,0.000,0.000
387,1071,0.875,0.000,0.000,0.000
388,1074,0.875,0.000,0.000,0.000
389,1077,0.875,0.000,0.000,0.000
390,1080,0.875,0.000,0.000,0.000
391,1083,0.880,0.000,0.000,0.000
392,1087,0.875,0.000,0.000,0.000
393,1089,0.885,0.000,0.000,0.000
394,1092,0.899,0.000,0.000,0.000
395,1095,0.885,0.000,0.000,0.000
396,1098,0.899,0.000,0.000,0.000
397,1101,0.899,0.000,0.000,0.000
398,1104,0.890,0.000,0.000,0.000
399,1106,0.899,0.000,0.000,0.000
400,1109,0.899,0.000,0.000,0.000
401,1112,0.899,0.000,0.000,0.000
402,1115,0.904,0.000,0.000,0.000
403,1118,0.904,0.000,0.000,0.000
404,1120,0.904,0.000,0.000,0.000
405,1123,0.899,0.000,0.000,0.000
406,1126,0.914,0.000,0.000,0.000
407,1130,0.914,0.000,0.000,0.000
408,1133,0.909,0.000,0.000,0.000
409,1136,0.919,0.000,0.000,0.000
410,1138,0.929,0.000,0.000,0.000
411,1141,0.914,0.000,0.000,0.000
412,1144,0.924,0.000,0.000,0.000
413,1147,0.929,0.000,0.000,0.000
414,1150,0.929,0.000,0.000,0.000
415,1153,0.929,0.000,0.000,0.000
416,1155,0.938,0.000,0.000,0.000
417,1158,0.938,0.000,0.000,0.000
418,1161,0.929,0.000,0.000,0.000
419,1164,0.938,0.000,0.000,0.000
420,1167,0.938,0.000,0.000,0.000
421,1169,0.938,0.000,0.000,0.000
422,1173,0.953,0.000,0.000,0.000
423,1176,0.948,0.000,0.000,0.000
424,1179,0.943,0.000,0.000,0.000
425,1182,0.953,0.000,0.000,0.000
426,1185,0.953,0.000,0.000,0.000
427,1187,0.953,0.000,0.000,0.000
428,1190,0.953,0.000,0.000,0.000
429,1193,0.968,0.000,0.000,0.000
430,1196,0.968,0.000,0.000,0.000
431,1199,0.958,0.000,0.000,0.000
432,1201,0.968,0.000,0.000,0.000
433,1204,0.973,0.000,0.000,0.000
434,1207,0.968,0.000,0.000,0.000
435,1210,0.973,0.000,0.000,0.000
436,1214,0.973,0.000,0.000,0.000
437,1217,0.973,0.000,0.000,0.000
438,1219,0.992,0.000,0.000,0.000
439,1222,0.987,0.000,0.000,0.000
440,1225,0.987,0.000,0.000,0.000
441,1228,0.973,0.000,0.000,0.000
442,1231,0.992,0.000,0.000,0.000
443,1234,0.997,0.000,0.000,0.000
444,1236,0.997,0.000,0.000,0.000
445,1239,1.002,0.000,0.000,0.000
446,1242,1.002,0.000,0.000,0.000
447,1245,1.002,0.000,0.000,0.000
448,1248,1.007,0.000,0.000,0.000
449,1250,1.012,0.000,0.000,0.000
450,1253,1.012,0.000,0.000,0.000
451,1257,1.012,0.000,0.000,0.000
452,1260,1.022,0.000,0.000,0.000
453,1263,1.022,0.000,0.000,0.000
454,1266,1.012,0.000,0.000,0.000
455,1268,1.026,0.000,0.000,0.000
456,1271,1.031,0.000,0.000,0.000
457,1274,1.031,0.000,0.000,0.000
458,1277,1.036,0.000,0.000,0.000
459,1280,1.031,0.000,0.000,0.000
460,1283,1.031,0.000,0.000,0.000
461,1285,1.041,0.000,0.000,0.000
462,1288,1.046,0.000,0.000,0.000
463,1291,1.051,0.000,0.000,0.000
464,1294,1.051,0.000,0.000,0.000
465,1297,1.056,0.000,0.000,0.000
466,1300,1.056,0.000,0.000,0.000
467,1303,1.056,0.000,0.000,0.000
468,1306,1.061,0.000,0.000,0.000
469,1309,1.061,0.000,0.000,0.000
470,1312,1.061,0.000,0.000,0.000
471,1315,1.070,0.000,0.000,0.000
472,1317,1.075,0.000,0.000,0.000
473,1320,1.080,0.000,0.000,0.000
474,1323,1.080,0.000,0.000,0.000
475,1326,1.080,0.000,0.000,0.000
476,1329,1.085,0.000,0.000,0.000
477,1331,1.090,0.000,0.000,0.000
478,1334,1.095,0.000,0.000,0.000
479,1337,1.095,0.000,0.000,0.000
480,1340,1.090,0.000,0.000,0.000
481,1344,1.100,0.000,0.000,0.000
482,1347,1.100,0.000,0.000,0.000
483,1349,1.105,0.000,0.000,0.000
484,1352,1.109,0.000,0.000,0.000
485,1355,1.109,0.000,0.000,0.000
486,1358,1.109,0.000,0.000,0.000
487,1361,1.109,0.000,0.000,0.000
488,1364,1.119,0.000,0.000,0.000
489,1366,1.129,0.000,0.000,0.000
490,1369,1.119,0.000,0.000,0.000
491,1372,1.129,0.000,0.000,0.000
492,1375,1.129,0.000,0.000,0.000
493,1378,1.129,0.000,0.000,0.000
494,1380,1.139,0.000,0.000,0.000
495,1383,1.149,0.000,0.000,0.000
496,1387,1.129,0.000,0.000,0.000
497,1390,1.149,0.000,0.000,0.000
498,1393,1.153,0.000,0.000,0.000
499,1396,1.158,0.000,0.000,0.000
500,1398,1.153,0.000,0.000,0.000
501,1401,1.158,0.000,0.000,0.000
502,1404,1.168,0.000,0.000,0.000
503,1407,1.163,0.000,0.000,0.000
504,1410,1.168,0.000,0.000,0.000
505,1413,1.173,0.000,0.000,0.000
506,1415,1.173,0.000,0.000,0.000
507,1418,1.178,0.000,0.000,0.000
508,1421,1.188,0.000,0.000,0.000
509,1424,1.188,0.000,0.000,0.000
510,1428,1.188,0.000,0.000,0.000
511,1430,1.202,0.000,0.000,0.000
512,1433,1.202,0.000,0.000,0.000
513,1436,1.197,0.000,0.000,0.000
514,1439,1.207,0.000,0.000,0.000
515,1442,1.212,0.000,0.000,0.000
516,1445,1.202,0.000,0.000,0.000
517,1447,1.212,0.000,0.000,0.000
518,1450,1.212,0.000,0.000,0.000
519,1453,1.212,0.000,0.000,0.000
520,1456,1.227,0.000,0.000,0.000
521,1459,1.227,0.000,0.000,0.000
522,1462,1.227,0.000,0.000,0.000
523,1464,1.232,0.000,0.000,0.000
524,1467,1.232,0.000,0.000,0.000
525,1471,1.241,0.000,0.000,0.000
526,1474,1.237,0.000,0.000,0.000
527,1477,1.246,0.000,0.000,0.000
528,1479,1.246,0.000,0.000,0.000
529,1482,1.246,0.000,0.000,0.000
530,1485,1.246,0.000,0.000,0.000
531,1488,1.256,0.000,0.000,0.000
532,1491,1.246,0.000,0.000,0.000
533,1494,1.266,0.000,0.000,0.000
534,1496,1.266,0.000,0.000,0.000
535,1499,1.266,0.000,0.000,0.000
536,1502,1.266,0.000,0.000,0.000
537,1505,1.276,0.000,0.000,0.000
538,1508,1.281,0.000,0.000,0.000
539,1510,1.285,0.000,0.000,0.000
540,1514,1.285,0.000,0.000,0.000
541,1517,1.285,0.000,0.000,0.000
542,1520,1.285,0.000,0.000,0.000
543,1523,1.295,0.000,0.000,0.000
544,1526,1.295,0.000,0.000,0.000
545,1528,1.305,0.000,0.000,0.000
546,1531,1.310,0.000,0.000,0.000
547,1534,1.310,0.000,0.000,0.000
548,1537,1.315,0.000,0.000,0.000
549,1540,1.310,0.000,0.000,0.000
550,1543,1.325,0.000,0.000,0.000
551,1545,1.325,0.000,0.000,0.000
552,1548,1.320,0.000,0.000,0.000
553,1551,1.325,0.000,0.000,0.000
554,1554,1.334,0.000,0.000,0.000
555,1558,1.325,0.000,0.000,0.000
556,1560,1.339,0.000,0.000,0.000
557,1563,1.344,0.000,0.000,0.000
558,1566,1.344,0.000,0.000,0.000
559,1569,1.344,0.000,0.000,0.000
560,1572,1.349,0.000,0.000,0.000
561,1575,1.359,0.000,0.000,0.000
562,1577,1.359,0.000,0.000,0.000
563,1580,1.369,0.000,0.000,0.000
564,1583,1.369,0.000,0.000,0.000
565,1586,1.364,0.000,0.000,0.000
566,1589,1.373,0.000,0.000,0.000
567,1592,1.373,0.000,0.000,0.000
568,1594,1.373,0.000,0.000,0.000
569,1598,1.383,0.000,0.000,0.000
570,1601,1.383,0.000,0.000,0.000
571,1604,1.388,0.000,0.000,0.000
572,1607,1.383,0.000,0.000,0.000
573,1609,1.398,0.000,0.000,0.000
574,1612,1.403,0.000,0.000,0.000
575,1615,1.398,0.000,0.000,0.000
576,1618,1.403,0.000,0.000,0.000
577,1621,1.403,0.000,0.000,0.000
578,1624,1.403,0.000,0.000,0.000
579,1626,1.413,0.000,0.000,0.000
580,1629,1.417,0.000,0.000,0.000
581,1632,1.422,0.000,0.000,0.000
582,1635,1.422,0.000,0.000,0.000
583,1638,1.427,0.000,0.000,0.000
584,1641,1.437,0.000,0.000,0.000
585,1644,1.422,0.000,0.000,0.000
586,1647,1.442,0.000,0.000,0.000
587,1650,1.442,0.000,0.000,0.000
588,1653,1.442,0.000,0.000,0.000
589,1656,1.442,0.000,0.000,0.000
590,1658,1.461,0.000,0.000,0.000
591,1661,1.442,0.000,0.000,0.000
592,1664,1.461,0.000,0.000,0.000
593,1667,1.461,0.000,0.000,0.000
594,1670,1.461,0.000,0.000,0.000
595,1673,1.461,0.000,0.000,0.000
596,1675,1.481,0.000,0.000,0.000
597,1678,1.476,0.000,0.000,0.000
598,1681,1.466,0.000,0.000,0.000
599,1685,1.476,0.000,0.000,0.000
600,1688,1.481,0.000,0.000,0.000
601,1690,1.486,0.000,0.000,0.000
602,1693,1.491,0.000,0.000,0.000
603,1696,1.500,0.000,0.000,0.000
604,1699,1.491,0.000,0.000,0.000
605,1702,1.500,0.000,0.000,0.000
606,1705,1.500,0.000,0.000,0.000
607,1707,1.505,0.000,0.000,0.000
608,1710,1.515,0.000,0.000,0.000
609,1713,1.515,0.000,0.000,0.000
610,1716,1.520,0.000,0.000,0.000
611,1719,1.515,0.000,0.000,0.000
612,1722,1.525,0.000,0.000,0.000
613,1724,1.525,0.000,0.000,0.000
614,1728,1.525,0.000,0.000,0.000
615,1731,1.530,0.000,0.000,0.000
616,1734,1.540,0.000,0.000,0.000
617,1737,1.540,0.000,0.000,0.000
618,1739,1.544,0.000,0.000,0.000
619,1742,1.549,0.000,0.000,0.000
620,1745,1.549,0.000,0.000,0.000
621,1748,1.544,0.000,0.000,0.000
622,1751,1.559,0.000,0.000,0.000
623,1754,1.559,0.000,0.000,0.000
624,1756,1.559,0.000,0.000,0.000
625,1759,1.559,0.000,0.000,0.000
626,1762,1.569,0.000,0.000,0.000
627,1765,1.559,0.000,0.000,0.000
628,1769,1.574,0.000,0.000,0.000
629,1771,1.579,0.000,0.000,0.000
630,1774,1.584,0.000,0.000,0.000
631,1777,1.584,0.000,0.000,0.000
632,1780,1.588,0.000,0.000,0.000
633,1783,1.593,0.000,0.000,0.000
634,1786,1.584,0.000,0.000,0.000
635,1788,1.598,0.000,0.000,0.000
636,1791,1.608,0.000,0.000,0.000
637,1794,1.598,0.000,0.000,0.000
638,1797,1.608,0.000,0.000,0.000
639,1800,1.618,0.000,0.000,0.000
640,1803,1.608,0.000,0.000,0.000
641,1805,1.623,0.000,0.000,0.000
642,1808,1.623,0.000,0.000,0.000
643,1812,1.623,0.000,0.000,0.000
644,1815,1.623,0.000,0.000,0.000
645,1818,1.632,0.000,0.000,0.000
646,1820,1.637,0.000,0.000,0.000
647,1823,1.632,0.000,0.000,0.000
648,1826,1.637,0.000,0.000,0.000
649,1829,1.642,0.000,0.000,0.000
650,1832,1.637,0.000,0.000,0.000
651,1835,1.652,0.000,0.000,0.000
652,1837,1.657,0.000,0.000,0.000
653,1840,1.657,0.000,0.000,0.000
654,1843,1.657,0.000,0.000,0.000
655,1846,1.662,0.000,0.000,0.000
656,1849,1.667,0.000,0.000,0.000
657,1852,1.662,0.000,0.000,0.000
658,1855,1.681,0.000,0.000,0.000
659,1858,1.681,0.000,0.000,0.000
660,1861,1.672,0.000,0.000,0.000
661,1864,1.681,0.000,0.000,0.000
662,1867,1.686,0.000,0.000,0.000
663,1869,1.686,0.000,0.000,0.000
664,1872,1.701,0.000,0.000,0.000
665,1875,1.701,0.000,0.000,0.000
666,1878,1.701,0.000,0.000,0.000
667,1881,1.696,0.000,0.000,0.000
668,1884,1.706,0.000,0.000,0.000
669,1886,1.716,0.000,0.000,0.000
670,1889,1.706,0.000,0.000,0.000
671,1892,1.720,0.000,0.000,0.000
672,1895,1.720,0.000,0.000,0.000
673,1899,1.716,0.000,0.000,0.000
674,1901,1.725,0.000,0.000,0.000
675,1904,1.735,0.000,0.000,0.000
676,1907,1.720,0.000,0.000,0.000
677,1910,1.735,0.000,0.000,0.000
678,1913,1.735,0.000,0.000,0.000
679,1916,1.740,0.000,0.000,0.000
680,1918,1.735,0.000,0.000,0.000
681,1921,1.755,0.000,0.000,0.000
682,1924,1.750,0.000,0.000,0.000
683,1927,1.745,0.000,0.000,0.000
684,1930,1.755,0.000,0.000,0.000
685,1933,1.755,0.000,0.000,0.000
686,1935,1.755,0.000,0.000,0.000
687,1938,1.764,0.000,0.000,0.000
688,1942,1.764,0.000,0.000,0.000
689,1945,1.769,0.000,0.000,0.000
690,1948,1.774,0.000,0.000,0.000
691,1950,1.779,0.000,0.000,0.000
692,1953,1.779,0.000,0.000,0.000
693,1956,1.779,0.000,0.000,0.000
694,1959,1.789,0.000,0.000,0.000
695,1962,1.789,0.000,0.000,0.000
696,1965,1.789,0.000,0.000,0.000
697,1967,1.804,0.000,0.000,0.000
698,1970,1.799,0.000,0.000,0.000
699,1973,1.794,0.000,0.000,0.000
700,1976,1.804,0.000,0.000,0.000
701,1979,1.808,0.000,0.000,0.000
702,1983,1.813,0.000,0.000,0.000
703,1985,1.813,0.000,0.000,0.000
704,1988,1.818,0.000,0.000,0.000
705,1991,1.813,0.000,0.000,0.000
706,1994,1.813,0.000,0.000,0.000
707,1997,1.828,0.000,0.000,0.000
708,1999,1.828,0.000,0.000,0.000
709,2002,1.833,0.000,0.000,0.000
710,2005,1.838,0.000,0.000,0.000
711,2008,1.838,0.000,0.000,0.000
712,2011,1.838,0.000,0.000,0.000
713,2014,1.848,0.000,0.000,0.000
714,2016,1.848,0.000,0.000,0.000
715,2019,1.852,0.000,0.000,0.000
716,2022,1.843,0.000,0.000,0.000
717,2026,1.857,0.000,0.000,0.000
718,2029,1.857,0.000,0.000,0.000
719,2031,1.857,0.000,0.000,0.000
720,2034,1.867,0.000,0.000,0.000
721,2037,1.872,0.000,0.000,0.000
722,2040,1.862,0.000,0.000,0.000
723,2043,1.877,0.000,0.000,0.000
724,2046,1.877,0.000,0.000,0.000
725,2048,1.882,0.000,0.000,0.000
726,2051,1.882,0.000,0.000,0.000
727,2054,1.887,0.000,0.000,0.000
728,2057,1.891,0.000,0.000,0.000
729,2060,1.882,0.000,0.000,0.000
730,2063,1.891,0.000,0.000,0.000
731,2065,1.891,0.000,0.000,0.000
732,2069,1.891,0.000,0.000,0.000
733,2072,1.906,0.000,0.000,0.000
734,2075,1.906,0.000,0.000,0.000
735,2078,1.906,0.000,0.000,0.000
736,2080,1.911,0.000,0.000,0.000
737,2083,1.911,0.000,0.000,0.000
738,2086,1.911,0.000,0.000,0.000
739,2089,1.911,0.000,0.000,0.000
740,2092,1.921,0.000,0.000,0.000
741,2095,1.921,0.000,0.000,0.000
742,2097,1.921,0.000,0.000,0.000
743,2100,1.931,0.000,0.000,0.000
744,2103,1.935,0.000,0.000,0.000
745,2106,1.931,0.000,0.000,0.000
746,2110,1.935,0.000,0.000,0.000
747,2113,1.945,0.000,0.000,0.000
748,2115,1.950,0.000,0.000,0.000
749,2118,1.945,0.000,0.000,0.000
750,2121,1.950,0.000,0.000,0.000
751,2124,1.950,0.000,0.000,0.000
752,2127,1.945,0.000,0.000,0.000
753,2129,1.960,0.000,0.000,0.000
754,2132,1.960,0.000,0.000,0.000
755,2135,1.955,0.000,0.000,0.000
756,2138,1.970,0.000,0.000,0.000
757,2141,1.970,0.000,0.000,0.000
758,2144,1.960,0.000,0.000,0.000
759,2146,1.970,0.000,0.000,0.000
760,2149,1.975,0.000,0.000,0.000
761,2153,1.979,0.000,0.000,0.000
762,2156,1.984,0.000,0.000,0.000
763,2159,1.989,0.000,0.000,0.000
764,2161,1.989,0.000,0.000,0.000
765,2164,1.984,0.000,0.000,0.000
766,2167,1.994,0.000,0.000,0.000
767,2170,1.994,0.000,0.000,0.000
768,2173,1.994,0.000,0.000,0.000
769,2176,1.999,0.000,0.000,0.000
770,2178,2.004,0.000,0.000,0.000
771,2181,1.999,0.000,0.000,0.000
772,2184,2.009,0.000,0.000,0.000
773,2187,2.014,0.000,0.000,0.000
774,2190,2.014,0.000,0.000,0.000
775,2193,2.014,0.000,0.000,0.000
776,2196,2.023,0.000,0.000,0.000
777,2199,2.023,0.000,0.000,0.000
778,2202,2.014,0.000,0.000,0.000
779,2205,2.028,0.000,0.000,0.000
780,2208,2.028,0.000,0.000,0.000
781,2210,2.028,0.000,0.000,0.000
782,2213,2.038,0.000,0.000,0.000
783,2216,2.038,0.000,0.000,0.000
784,2219,2.038,0.000,0.000,0.000
785,2222,2.038,0.000,0.000,0.000
786,2225,2.043,0.000,0.000,0.000
787,2227,2.048,0.000,0.000,0.000
788,2230,2.048,0.000,0.000,0.000
789,2233,2.053,0.000,0.000,0.000
790,2236,2.053,0.000,0.000,0.000
791,2240,2.048,0.000,0.000,0.000
792,2243,2.063,0.000,0.000,0.000
793,2245,2.063,0.000,0.000,0.000
794,2248,2.063,0.000,0.000,0.000
795,2251,2.067,0.000,0.000,0.000
796,2254,2.067,0.000,0.000,0.000
797,2257,2.077,0.000,0.000,0.000
798,2259,2.087,0.000,0.000,0.000
799,2262,2.077,0.000,0.000,0.000
800,2265,2.077,0.000,0.000,0.000
801,2268,2.077,0.000,0.000,0.000
802,2271,2.087,0.000,0.000,0.000
803,2274,2.092,0.000,0.000,0.000
804,2276,2.087,0.000,0.000,0.000
805,2279,2.092,0.000,0.000,0.000
806,2283,2.092,0.000,0.000,0.000
807,2286,2.092,0.000,0.000,0.000
808,2289,2.102,0.000,0.000,0.000
809,2291,2.107,0.000,0.000,0.000
810,2294,2.111,0.000,0.000,0.000
811,2297,2.102,0.000,0.000,0.000
812,2300,2.107,0.000,0.000,0.000
813,2303,2.111,0.000,0.000,0.000
814,2306,2.107,0.000,0.000,0.000
815,2308,2.126,0.000,0.000,0.000
816,2311,2.116,0.000,0.000,0.000
817,2314,2.111,0.000,0.000,0.000
818,2317,2.126,0.000,0.000,0.000
819,2320,2.126,0.000,0.000,0.000
820,2324,2.126,0.000,0.000,0.000
821,2326,2.131,0.000,0.000,0.000
822,2329,2.131,0.000,0.000,0.000
823,2332,2.136,0.000,0.000,0.000
824,2335,2.131,0.000,0.000,0.000
825,2338,2.141,0.000,0.000,0.000
826,2340,2.146,0.000,0.000,0.000
827,2343,2.136,0.000,0.000,0.000
828,2346,2.146,0.000,0.000,0.000
829,2349,2.151,0.000,0.000,0.000
830,2352,2.146,0.000,0.000,0.000
831,2355,2.151,0.000,0.000,0.000
832,2357,2.155,0.000,0.000,0.000
833,2360,2.151,0.000,0.000,0.000
834,2363,2.155,0.000,0.000,0.000
835,2367,2.155,0.000,0.000,0.000
836,2370,2.155,0.000,0.000,0.000
837,2373,2.155,0.000,0.000,0.000
838,2375,2.170,0.000,0.000,0.000
839,2378,2.165,0.000,0.000,0.000
840,2381,2.165,0.000,0.000,0.000
841,2384,2.170,0.000,0.000,0.000
842,2387,2.170,0.000,0.000,0.000
843,2389,2.170,0.000,0.000,0.000
844,2392,2.180,0.000,0.000,0.000
845,2395,2.180,0.000,0.000,0.000
846,2398,2.180,0.000,0.000,0.000
847,2401,2.175,0.000,0.000,0.000
848,2404,2.190,0.000,0.000,0.000
849,2406,2.195,0.000,0.000,0.000
850,2410,2.180,0.000,0.000,0.000
851,2413,2.190,0.000,0.000,0.000
852,2416,2.190,0.000,0.000,0.000
853,2419,2.190,0.000,0.000,0.000
854,2421,2.195,0.000,0.000,0.000
855,2424,2.195,0.000,0.000,0.000
856,2427,2.199,0.000,0.000,0.000
857,2430,2.204,0.000,0.000,0.000
858,2433,2.204,0.000,0.000,0.000
859,2436,2.204,0.000,0.000,0.000
860,2438,2.195,0.000,0.000,0.000
861,2441,2.209,0.000,0.000,0.000
862,2444,2.209,0.000,0.000,0.000
863,2447,2.204,0.000,0.000,0.000
864,2450,2.219,0.000,0.000,0.000
865,2454,2.224,0.000,0.000,0.000
866,2456,2.214,0.000,0.000,0.000
867,2459,2.224,0.000,0.000,0.000
868,2462,2.224,0.000,0.000,0.000
869,2465,2.224,0.000,0.000,0.000
870,2468,2.219,0.000,0.000,0.000
871,2470,2.224,0.000,0.000,0.000
872,2473,2.224,0.000,0.000,0.000
873,2476,2.224,0.000,0.000,0.000
874,2479,2.224,0.000,0.000,0.000
875,2482,2.234,0.000,0.000,0.000
876,2485,2.224,0.000,0.000,0.000
877,2487,2.234,0.000,0.000,0.000
878,2490,2.234,0.000,0.000,0.000
879,2494,2.224,0.000,0.000,0.000
880,2497,2.243,0.000,0.000,0.000
881,2500,2.243,0.000,0.000,0.000
882,2503,2.243,0.000,0.000,0.000
883,2505,2.248,0.000,0.000,0.000
884,2508,2.248,0.000,0.000,0.000
885,2511,2.248,0.000,0.000,0.000
886,2514,2.243,0.000,0.000,0.000
887,2517,2.248,0.000,0.000,0.000
888,2519,2.248,0.000,0.000,0.000
889,2522,2.248,0.000,0.000,0.000
890,2525,2.253,0.000,0.000,0.000
891,2528,2.258,0.000,0.000,0.000
892,2531,2.258,0.000,0.000,0.000
893,2534,2.258,0.000,0.000,0.000
894,2537,2.258,0.000,0.000,0.000
895,2540,2.263,0.000,0.000,0.000
896,2543,2.253,0.000,0.000,0.000
897,2546,2.263,0.000,0.000,0.000
898,2549,2.263,0.000,0.000,0.000
899,2551,2.263,0.000,0.000,0.000
900,2554,2.263,0.000,0.000,0.000
901,2557,2.263,0.000,0.000,0.000
902,2560,2.263,0.000,0.000,0.000
903,2563,2.268,0.000,0.000,0.000
904,2566,2.268,0.000,0.000,0.000
905,2568,2.273,0.000,0.000,0.000
906,2571,2.263,0.000,0.000,0.000
907,2574,2.273,0.000,0.000,0.000
908,2577,2.273,0.000,0.000,0.000
909,2581,2.263,0.000,0.000,0.000
910,2584,2.273,0.000,0.000,0.000
911,2586,2.283,0.000,0.000,0.000
912,2589,2.263,0.000,0.000,0.000
913,2592,2.278,0.000,0.000,0.000
914,2595,2.283,0.000,0.000,0.000
915,2598,2.268,0.000,0.000,0.000
916,2600,2.278,0.000,0.000,0.000
917,2603,2.273,0.000,0.000,0.000
918,2606,2.273,0.000,0.000,0.000
919,2609,2.273,0.000,0.000,0.000
920,2612,2.283,0.000,0.000,0.000
921,2615,2.283,0.000,0.000,0.000
922,2617,2.273,0.000,0.000,0.000
923,2620,2.283,0.000,0.000,0.000
924,2624,2.278,0.000,0.000,0.000
925,2627,2.273,0.000,0.000,0.000
926,2630,2.278,0.000,0.000,0.000
927,2633,2.283,0.000,0.000,0.000
928,2635,2.283,0.000,0.000,0.000
929,2638,2.283,0.000,0.000,0.000
930,2641,2.278,0.000,0.000,0.000
931,2644,2.278,0.000,0.000,0.000
932,2647,2.273,0.000,0.000,0.000
933,2649,2.283,0.000,0.000,0.000
934,2652,2.283,0.000,0.000,0.000
935,2655,2.273,0.000,0.000,0.000
936,2658,2.278,0.000,0.000,0.000
937,2661,2.273,0.000,0.000,0.000
938,2665,2.263,0.000,0.000,0.000
939,2667,2.283,0.000,0.000,0.000
940,2670,2.278,0.000,0.000,0.000
941,2673,2.278,0.000,0.000,0.000
942,2676,2.268,0.000,0.000,0.000
943,2679,2.273,0.000,0.000,0.000
944,2681,2.273,0.000,0.000,0.000
945,2684,2.263,0.000,0.000,0.000
946,2687,2.273,0.000,0.000,0.000
947,2690,2.273,0.000,0.000,0.000
948,2693,2.263,0.000,0.000,0.000
949,2696,2.273,0.000,0.000,0.000
950,2698,2.268,0.000,0.000,0.000
951,2701,2.263,0.000,0.000,0.000
952,2704,2.263,0.000,0.000,0.000
953,2708,2.263,0.000,0.000,0.000
954,2711,2.263,0.000,0.000,0.000
955,2714,2.258,0.000,0.000,0.000
956,2716,2.263,0.000,0.000,0.000
957,2719,2.263,0.000,0.000,0.000
958,2722,2.258,0.000,0.000,0.000
959,2725,2.263,0.000,0.000,0.000
960,2728,2.263,0.000,0.000,0.000
961,2730,2.258,0.000,0.000,0.000
962,2733,2.263,0.000,0.000,0.000
963,2736,2.258,0.000,0.000,0.000
964,2739,2.258,0.000,0.000,0.000
965,2742,2.258,0.000,0.000,0.000
966,2745,2.253,0.000,0.000,0.000
967,2747,2.253,0.000,0.000,0.000
968,2751,2.248,0.000,0.000,0.000
969,2754,2.253,0.000,0.000,0.000
970,2757,2.248,0.000,0.000,0.000
971,2760,2.239,0.000,0.000,0.000
972,2763,2.248,0.000,0.000,0.000
973,2765,2.248,0.000,0.000,0.000
974,2768,2.234,0.000,0.000,0.000
975,2771,2.243,0.000,0.000,0.000
976,2774,2.243,0.000,0.000,0.000
977,2777,2.243,0.000,0.000,0.000
978,2779,2.229,0.000,0.000,0.000
979,2782,2.234,0.000,0.000,0.000
980,2785,2.229,0.000,0.000,0.000
981,2788,2.224,0.000,0.000,0.000
982,2791,2.229,0.000,0.000,0.000
983,2795,2.224,0.000,0.000,0.000
984,2797,2.224,0.000,0.000,0.000
985,2800,2.224,0.000,0.000,0.000
986,2803,2.224,0.000,0.000,0.000
987,2806,2.214,0.000,0.000,0.000
988,2809,2.224,0.000,0.000,0.000
989,2811,2.219,0.000,0.000,0.000
990,2814,2.219,0.000,0.000,0.000
991,2817,2.204,0.000,0.000,0.000
992,2820,2.209,0.000,0.000,0.000
993,2823,2.204,0.000,0.000,0.000
994,2826,2.199,0.000,0.000,0.000
995,2828,2.204,0.000,0.000,0.000
996,2831,2.214,0.000,0.000,0.000
997,2834,2.195,0.000,0.000,0.000
998,2838,2.204,0.000,0.000,0.000
999,2841,2.199,0.000,0.000,0.000
1000,2844,2.195,0.000,0.000,0.000
1001,2846,2.190,0.000,0.000,0.000
1002,2849,2.190,0.000,0.000,0.000
1003,2852,2.190,0.000,0.000,0.000
1004,2855,2.180,0.000,0.000,0.000
1005,2858,2.190,0.000,0.000,0.000
1006,2861,2.185,0.000,0.000,0.000
1007,2864,2.185,0.000,0.000,0.000
1008,2867,2.170,0.000,0.000,0.000
1009,2870,2.180,0.000,0.000,0.000
1010,2873,2.170,0.000,0.000,0.000
1011,2876,2.165,0.000,0.000,0.000
1012,2879,2.170,0.000,0.000,0.000
1013,2882,2.170,0.000,0.000,0.000
1014,2885,2.165,0.000,0.000,0.000
1015,2888,2.155,0.000,0.000,0.000
1016,2891,2.160,0.000,0.000,0.000
1017,2894,2.155,0.000,0.000,0.000
1018,2897,2.151,0.000,0.000,0.000
1019,2900,2.151,0.000,0.000,0.000
1020,2903,2.151,0.000,0.000,0.000
1021,2906,2.151,0.000,0.000,0.000
1022,2908,2.141,0.000,0.000,0.000
1023,2911,2.151,0.000,0.000,0.000
1024,2914,2.141,0.000,0.000,0.000
1025,2917,2.131,0.000,0.000,0.000
1026,2921,2.136,0.000,0.000,0.000
1027,2924,2.131,0.000,0.000,0.000
1028,2927,2.126,0.000,0.000,0.000
1029,2930,2.121,0.000,0.000,0.000
1030,2933,2.126,0.000,0.000,0.000
1031,2936,2.126,0.000,0.000,0.000
1032,2939,2.111,0.000,0.000,0.000
1033,2941,2.116,0.000,0.000,0.000
1034,2944,2.111,0.000,0.000,0.000
1035,2947,2.111,0.000,0.000,0.000
1036,2950,2.107,0.000,0.000,0.000
1037,2953,2.111,0.000,0.000,0.000
1038,2956,2.107,0.000,0.000,0.000
1039,2959,2.092,0.000,0.000,0.000
1040,2962,2.097,0.000,0.000,0.000
1041,2966,2.097,0.000,0.000,0.000
1042,2969,2.092,0.000,0.000,0.000
1043,2971,2.087,0.000,0.000,0.000
1044,2974,2.092,0.000,0.000,0.000
1045,2977,2.087,0.000,0.000,0.000
1046,2980,2.067,0.000,0.000,0.000
1047,2983,2.077,0.000,0.000,0.000
1048,2986,2.077,0.000,0.000,0.000
1049,2989,2.067,0.000,0.000,0.000
1050,2992,2.067,0.000,0.000,0.000
1051,2995,2.067,0.000,0.000,0.000
1052,2998,2.067,0.000,0.000,0.000
1053,3001,2.053,0.000,0.000,0.000
1054,3003,2.058,0.000,0.000,0.000
1055,3007,2.053,0.000,0.000,0.000
1056,3010,2.048,0.000,0.000,0.000
1057,3013,2.048,0.000,0.000,0.000
1058,3016,2.048,0.000,0.000,0.000
1059,3019,2.043,0.000,0.000,0.000
1060,3022,2.028,0.000,0.000,0.000
1061,3025,2.038,0.000,0.000,0.000
1062,3028,2.033,0.000,0.000,0.000
1063,3031,2.028,0.000,0.000,0.000
1064,3033,2.023,0.000,0.000,0.000
1065,3036,2.023,0.000,0.000,0.000
1066,3039,2.023,0.000,0.000,0.000
1067,3042,2.014,0.000,0.000,0.000
1068,3045,2.019,0.000,0.000,0.000
1069,3049,2.014,0.000,0.000,0.000
1070,3052,2.014,0.000,0.000,0.000
1071,3055,1.999,0.000,0.000,0.000
1072,3058,2.009,0.000,0.000,0.000
1073,3061,1.999,0.000,0.000,0.000
1074,3064,1.994,0.000,0.000,0.000
1075,3066,1.994,0.000,0.000,0.000
1076,3069,1.994,0.000,0.000,0.000
1077,3072,1.994,0.000,0.000,0.000
1078,3075,1.984,0.000,0.000,0.000
1079,3078,1.984,0.000,0.000,0.000
1080,3081,1.975,0.000,0.000,0.000
1081,3084,1.965,0.000,0.000,0.000
1082,3087,1.970,0.000,0.000,0.000
1083,3090,1.970,0.000,0.000,0.000
1084,3094,1.970,0.000,0.000,0.000
1085,3096,1.950,0.000,0.000,0.000
1086,3099,1.960,0.000,0.000,0.000
1087,3102,1.955,0.000,0.000,0.000
1088,3105,1.945,0.000,0.000,0.000
1089,3108,1.950,0.000,0.000,0.000
1090,3111,1.950,0.000,0.000,0.000
1091,3114,1.945,0.000,0.000,0.000
1092,3117,1.935,0.000,0.000,0.000
1093,3120,1.935,0.000,0.000,0.000
1094,3123,1.935,0.000,0.000,0.000
1095,3126,1.921,0.000,0.000,0.000
1096,3128,1.921,0.000,0.000,0.000
1097,3131,1.921,0.000,0.000,0.000
1098,3135,1.921,0.000,0.000,0.000
1099,3138,1.906,0.000,0.000,0.000
1100,3141,1.911,0.000,0.000,0.000
1101,3144,1.906,0.000,0.000,0.000
1102,3147,1.891,0.000,0.000,0.000
1103,3150,1.901,0.000,0.000,0.000
1104,3153,1.896,0.000,0.000,0.000
1105,3156,1.891,0.000,0.000,0.000
1106,3159,1.877,0.000,0.000,0.000
1107,3161,1.877,0.000,0.000,0.000
1108,3164,1.877,0.000,0.000,0.000
1109,3167,1.877,0.000,0.000,0.000
1110,3170,1.877,0.000,0.000,0.000
1111,3173,1.867,0.000,0.000,0.000
1112,3177,1.862,0.000,0.000,0.000
1113,3180,1.857,0.000,0.000,0.000
1114,3183,1.857,0.000,0.000,0.000
1115,3186,1.852,0.000,0.000,0.000
1116,3189,1.838,0.000,0.000,0.000
1117,3191,1.843,0.000,0.000,0.000
1118,3194,1.838,0.000,0.000,0.000
1119,3197,1.838,0.000,0.000,0.000
1120,3200,1.828,0.000,0.000,0.000
1121,3203,1.823,0.000,0.000,0.000
1122,3206,1.818,0.000,0.000,0.000
1123,3209,1.813,0.000,0.000,0.000
1124,3212,1.813,0.000,0.000,0.000
1125,3215,1.808,0.000,0.000,0.000
1126,3218,1.804,0.000,0.000,0.000
1127,3222,1.794,0.000,0.000,0.000
1128,3224,1.794,0.000,0.000,0.000
1129,3227,1.794,0.000,0.000,0.000
1130,3230,1.779,0.000,0.000,0.000
1131,3233,1.779,0.000,0.000,0.000
1132,3236,1.779,0.000,0.000,0.000
1133,3239,1.774,0.000,0.000,0.000
1134,3242,1.760,0.000,0.000,0.000
1135,3245,1.755,0.000,0.000,0.000
1136,3248,1.755,0.000,0.000,0.000
1137,3251,1.750,0.000,0.000,0.000
1138,3253,1.755,0.000,0.000,0.000
1139,3256,1.740,0.000,0.000,0.000
1140,3259,1.735,0.000,0.000,0.000
1141,3263,1.730,0.000,0.000,0.000
1142,3266,1.730,0.000,0.000,0.000
1143,3269,1.725,0.000,0.000,0.000
1144,3272,1.716,0.000,0.000,0.000
1145,3275,1.720,0.000,0.000,0.000
1146,3278,1.711,0.000,0.000,0.000
1147,3281,1.711,0.000,0.000,0.000
1148,3284,1.701,0.000,0.000,0.000
1149,3286,1.701,0.000,0.000,0.000
1150,3289,1.701,0.000,0.000,0.000
1151,3292,1.681,0.000,0.000,0.000
1152,3295,1.686,0.000,0.000,0.000
1153,3298,1.681,0.000,0.000,0.000
1154,3301,1.676,0.000,0.000,0.000
1155,3305,1.662,0.000,0.000,0.000
1156,3308,1.672,0.000,0.000,0.000
1157,3311,1.662,0.000,0.000,0.000
1158,3314,1.652,0.000,0.000,0.000
1159,3316,1.652,0.000,0.000,0.000
1160,3319,1.647,0.000,0.000,0.000
1161,3322,1.637,0.000,0.000,0.000
1162,3325,1.632,0.000,0.000,0.000
1163,3328,1.632,0.000,0.000,0.000
1164,3331,1.632,0.000,0.000,0.000
1165,3334,1.623,0.000,0.000,0.000
1166,3337,1.623,0.000,0.000,0.000
1167,3340,1.618,0.000,0.000,0.000
1168,3343,1.608,0.000,0.000,0.000
1169,3346,1.598,0.000,0.000,0.000
1170,3349,1.598,0.000,0.000,0.000
1171,3352,1.598,0.000,0.000,0.000
1172,3355,1.584,0.000,0.000,0.000
1173,3358,1.584,0.000,0.000,0.000
1174,3361,1.579,0.000,0.000,0.000
1175,3364,1.579,0.000,0.000,0.000
1176,3367,1.559,0.000,0.000,0.000
1177,3370,1.569,0.000,0.000,0.000
1178,3373,1.559,0.000,0.000,0.000
1179,3376,1.554,0.000,0.000,0.000
1180,3378,1.554,0.000,0.000,0.000
1181,3381,1.549,0.000,0.000,0.000
1182,3384,1.544,0.000,0.000,0.000
1183,3387,1.530,0.000,0.000,0.000
1184,3391,1.535,0.000,0.000,0.000
1185,3394,1.530,0.000,0.000,0.000
1186,3397,1.525,0.000,0.000,0.000
1187,3400,1.525,0.000,0.000,0.000
1188,3403,1.515,0.000,0.000,0.000
1189,3406,1.510,0.000,0.000,0.000
1190,3409,1.500,0.000,0.000,0.000
1191,3411,1.500,0.000,0.000,0.000
1192,3414,1.500,0.000,0.000,0.000
1193,3417,1.491,0.000,0.000,0.000
1194,3420,1.486,0.000,0.000,0.000
1195,3423,1.486,0.000,0.000,0.000
1196,3426,1.481,0.000,0.000,0.000
1197,3429,1.476,0.000,0.000,0.000
1198,3433,1.471,0.000,0.000,0.000
1199,3436,1.466,0.000,0.000,0.000
1200,3439,1.461,0.000,0.000,0.000
1201,3442,1.461,0.000,0.000,0.000
1202,3444,1.452,0.000,0.000,0.000
1203,3447,1.442,0.000,0.000,0.000
1204,3450,1.442,0.000,0.000,0.000
1205,3453,1.442,0.000,0.000,0.000
1206,3456,1.432,0.000,0.000,0.000
1207,3459,1.427,0.000,0.000,0.000
1208,3462,1.422,0.000,0.000,0.000
1209,3465,1.422,0.000,0.000,0.000
1210,3468,1.417,0.000,0.000,0.000
1211,3471,1.403,0.000,0.000,0.000
1212,3473,1.408,0.000,0.000,0.000
1213,3477,1.403,0.000,0.000,0.000
1214,3480,1.403,0.000,0.000,0.000
1215,3483,1.388,0.000,0.000,0.000
1216,3486,1.388,0.000,0.000,0.000
1217,3489,1.388,0.000,0.000,0.000
1218,3492,1.378,0.000,0.000,0.000
1219,3495,1.383,0.000,0.000,0.000
1220,3498,1.373,0.000,0.000,0.000
1221,3501,1.369,0.000,0.000,0.000
1222,3504,1.364,0.000,0.000,0.000
1223,3506,1.364,0.000,0.000,0.000
1224,3509,1.359,0.000,0.000,0.000
1225,3512,1.344,0.000,0.000,0.000
1226,3515,1.349,0.000,0.000,0.000
1227,3519,1.344,0.000,0.000,0.000
1228,3522,1.344,0.000,0.000,0.000
1229,3525,1.325,0.000,0.000,0.000
1230,3528,1.334,0.000,0.000,0.000
1231,3531,1.329,0.000,0.000,0.000
1232,3534,1.320,0.000,0.000,0.000
1233,3536,1.325,0.000,0.000,0.000
1234,3539,1.320,0.000,0.000,0.000
1235,3542,1.310,0.000,0.000,0.000
1236,3545,1.305,0.000,0.000,0.000
1237,3548,1.310,0.000,0.000,0.000
1238,3551,1.305,0.000,0.000,0.000
1239,3554,1.285,0.000,0.000,0.000
1240,3557,1.285,0.000,0.000,0.000
1241,3561,1.295,0.000,0.000,0.000
1242,3564,1.285,0.000,0.000,0.000
1243,3567,1.281,0.000,0.000,0.000
1244,3569,1.285,0.000,0.000,0.000
1245,3572,1.276,0.000,0.000,0.000
1246,3575,1.266,0.000,0.000,0.000
1247,3578,1.266,0.000,0.000,0.000
1248,3581,1.261,0.000,0.000,0.000
1249,3584,1.256,0.000,0.000,0.000
1250,3587,1.246,0.000,0.000,0.000
1251,3590,1.246,0.000,0.000,0.000
1252,3593,1.256,0.000,0.000,0.000
1253,3596,1.237,0.000,0.000,0.000
1254,3598,1.241,0.000,0.000,0.000
1255,3601,1.237,0.000,0.000,0.000
1256,3605,1.232,0.000,0.000,0.000
1257,3608,1.227,0.000,0.000,0.000
1258,3611,1.232,0.000,0.000,0.000
1259,3614,1.227,0.000,0.000,0.000
1260,3617,1.212,0.000,0.000,0.000
1261,3620,1.212,0.000,0.000,0.000
1262,3623,1.212,0.000,0.000,0.000
1263,3626,1.212,0.000,0.000,0.000
1264,3629,1.202,0.000,0.000,0.000
1265,3631,1.202,0.000,0.000,0.000
1266,3634,1.202,0.000,0.000,0.000
1267,3637,1.188,0.000,0.000,0.000
1268,3640,1.188,0.000,0.000,0.000
1269,3643,1.188,0.000,0.000,0.000
1270,3647,1.188,0.000,0.000,0.000
1271,3650,1.178,0.000,0.000,0.000
1272,3653,1.178,0.000,0.000,0.000
1273,3656,1.173,0.000,0.000,0.000
1274,3659,1.173,0.000,0.000,0.000
1275,3661,1.168,0.000,0.000,0.000
1276,3664,1.168,0.000,0.000,0.000
1277,3667,1.163,0.000,0.000,0.000
1278,3670,1.153,0.000,0.000,0.000
1279,3673,1.153,0.000,0.000,0.000
1280,3676,1.149,0.000,0.000,0.000
1281,3679,1.139,0.000,0.000,0.000
1282,3682,1.144,0.000,0.000,0.000
1283,3685,1.139,0.000,0.000,0.000
1284,3689,1.139,0.000,0.000,0.000
1285,3692,1.129,0.000,0.000,0.000
1286,3694,1.129,0.000,0.000,0.000
1287,3697,1.129,0.000,0.000,0.000
1288,3700,1.119,0.000,0.000,0.000
1289,3703,1.119,0.000,0.000,0.000
1290,3706,1.119,0.000,0.000,0.000
1291,3709,1.114,0.000,0.000,0.000
1292,3712,1.105,0.000,0.000,0.000
1293,3715,1.109,0.000,0.000,0.000
1294,3718,1.105,0.000,0.000,0.000
1295,3721,1.095,0.000,0.000,0.000
1296,3724,1.100,0.000,0.000,0.000
1297,3726,1.095,0.000,0.000,0.000
1298,3729,1.095,0.000,0.000,0.000
1299,3733,1.085,0.000,0.000,0.000
1300,3736,1.085,0.000,0.000,0.000
1301,3739,1.080,0.000,0.000,0.000
1302,3742,1.070,0.000,0.000,0.000
1303,3745,1.075,0.000,0.000,0.000
1304,3748,1.075,0.000,0.000,0.000
1305,3751,1.070,0.000,0.000,0.000
1306,3754,1.061,0.000,0.000,0.000
1307,3756,1.061,0.000,0.000,0.000
1308,3759,1.061,0.000,0.000,0.000
1309,3762,1.051,0.000,0.000,0.000
1310,3765,1.056,0.000,0.000,0.000
1311,3768,1.056,0.000,0.000,0.000
1312,3771,1.051,0.000,0.000,0.000
1313,3775,1.036,0.000,0.000,0.000
1314,3778,1.041,0.000,0.000,0.000
1315,3781,1.036,0.000,0.000,0.000
1316,3784,1.031,0.000,0.000,0.000
1317,3787,1.031,0.000,0.000,0.000
1318,3789,1.031,0.000,0.000,0.000
1319,3792,1.031,0.000,0.000,0.000
1320,3795,1.017,0.000,0.000,0.000
1321,3798,1.022,0.000,0.000,0.000
1322,3801,1.017,0.000,0.000,0.000
1323,3804,1.007,0.000,0.000,0.000
1324,3807,1.012,0.000,0.000,0.000
1325,3810,1.012,0.000,0.000,0.000
1326,3813,1.012,0.000,0.000,0.000
1327,3817,0.997,0.000,0.000,0.000
1328,3819,1.002,0.000,0.000,0.000
1329,3822,0.997,0.000,0.000,0.000
1330,3825,0.982,0.000,0.000,0.000
1331,3828,0.997,0.000,0.000,0.000
1332,3831,0.992,0.000,0.000,0.000
1333,3834,0.982,0.000,0.000,0.000
1334,3837,0.973,0.000,0.000,0.000
1335,3840,0.982,0.000,0.000,0.000
1336,3843,0.973,0.000,0.000,0.000
1337,3846,0.968,0.000,0.000,0.000
1338,3849,0.973,0.000,0.000,0.000
1339,3851,0.973,0.000,0.000,0.000
1340,3854,0.973,0.000,0.000,0.000
1341,3857,0.958,0.000,0.000,0.000
1342,3861,0.958,0.000,0.000,0.000
1343,3864,0.958,0.000,0.000,0.000
1344,3867,0.948,0.000,0.000,0.000
1345,3870,0.953,0.000,0.000,0.000
1346,3873,0.953,0.000,0.000,0.000
1347,3876,0.943,0.000,0.000,0.000
1348,3879,0.938,0.000,0.000,0.000
1349,3881,0.938,0.000,0.000,0.000
1350,3884,0.938,0.000,0.000,0.000
1351,3887,0.934,0.000,0.000,0.000
1352,3890,0.938,0.000,0.000,0.000
1353,3893,0.934,0.000,0.000,0.000
1354,3896,0.929,0.000,0.000,0.000
1355,3899,0.919,0.000,0.000,0.000
1356,3903,0.924,0.000,0.000,0.000
1357,3906,0.919,0.000,0.000,0.000
1358,3909,0.914,0.000,0.000,0.000
1359,3912,0.919,0.000,0.000,0.000
1360,3914,0.919,0.000,0.000,0.000
1361,3917,0.909,0.000,0.000,0.000
1362,3920,0.904,0.000,0.000,0.000
1363,3923,0.904,0.000,0.000,0.000
1364,3926,0.904,0.000,0.000,0.000
1365,3929,0.899,0.000,0.000,0.000
1366,3932,0.899,0.000,0.000,0.000
1367,3935,0.899,0.000,0.000,0.000
1368,3938,0.894,0.000,0.000,0.000
1369,3941,0.885,0.000,0.000,0.000
1370,3943,0.890,0.000,0.000,0.000
1371,3947,0.890,0.000,0.000,0.000
1372,3950,0.880,0.000,0.000,0.000
1373,3953,0.890,0.000,0.000,0.000
1374,3956,0.880,0.000,0.000,0.000
1375,3959,0.875,0.000,0.000,0.000
1376,3962,0.865,0.000,0.000,0.000
1377,3965,0.875,0.000,0.000,0.000
1378,3968,0.870,0.000,0.000,0.000
1379,3971,0.860,0.000,0.000,0.000
1380,3974,0.865,0.000,0.000,0.000
1381,3976,0.860,0.000,0.000,0.000
1382,3979,0.860,0.000,0.000,0.000
1383,3982,0.850,0.000,0.000,0.000
1384,3985,0.860,0.000,0.000,0.000
1385,3989,0.855,0.000,0.000,0.000
1386,3992,0.850,0.000,0.000,0.000
1387,3995,0.850,0.000,0.000,0.000
1388,3998,0.850,0.000,0.000,0.000
1389,4001,0.846,0.000,0.000,0.000
1390,4004,0.841,0.000,0.000,0.000
1391,4007,0.841,0.000,0.000,0.000
1392,4009,0.841,0.000,0.000,0.000
1393,4012,0.841,0.000,0.000,0.000
1394,4015,0.831,0.000,0.000,0.000
1395,4018,0.836,0.000,0.000,0.000
1396,4021,0.831,0.000,0.000,0.000
1397,4024,0.816,0.000,0.000,0.000
1398,4027,0.826,0.000,0.000,0.000
1399,4031,0.826,0.000,0.000,0.000
1400,4034,0.816,0.000,0.000,0.000
1401,4037,0.816,0.000,0.000,0.000
1402,4039,0.816,0.000,0.000,0.000
1403,4042,0.816,0.000,0.000,0.000
1404,4045,0.811,0.000,0.000,0.000
1405,4048,0.816,0.000,0.000,0.000
1406,4051,0.816,0.000,0.000,0.000
1407,4054,0.802,0.000,0.000,0.000
1408,4057,0.811,0.000,0.000,0.000
1409,4060,0.802,0.000,0.000,0.000
1410,4063,0.802,0.000,0.000,0.000
1411,4066,0.797,0.000,0.000,0.000
1412,4069,0.802,0.000,0.000,0.000
1413,4071,0.797,0.000,0.000,0.000
1414,4075,0.797,0.000,0.000,0.000
1415,4078,0.792,0.000,0.000,0.000
1416,4081,0.792,0.000,0.000,0.000
1417,4084,0.792,0.000,0.000,0.000
1418,4087,0.777,0.000,0.000,0.000
1419,4090,0.787,0.000,0.000,0.000
1420,4093,0.787,0.000,0.000,0.000
1421,4096,0.782,0.000,0.000,0.000
1422,4099,0.777,0.000,0.000,0.000
1423,4101,0.777,0.000,0.000,0.000
1424,4104,0.777,0.000,0.000,0.000
1425,4107,0.772,0.000,0.000,0.000
1426,4110,0.777,0.000,0.000,0.000
1427,4113,0.772,0.000,0.000,0.000
1428,4117,0.767,0.000,0.000,0.000
1429,4120,0.762,0.000,0.000,0.000
1430,4123,0.762,0.000,0.000,0.000
1431,4126,0.762,0.000,0.000,0.000
1432,4129,0.748,0.000,0.000,0.000
1433,4132,0.758,0.000,0.000,0.000
1434,4134,0.748,0.000,0.000,0.000
1435,4137,0.743,0.000,0.000,0.000
1436,4140,0.738,0.000,0.000,0.000
1437,4143,0.738,0.000,0.000,0.000
1438,4146,0.738,0.000,0.000,0.000
1439,4149,0.728,0.000,0.000,0.000
1440,4152,0.733,0.000,0.000,0.000
1441,4155,0.723,0.000,0.000,0.000
1442,4159,0.723,0.000,0.000,0.000
1443,4162,0.718,0.000,0.000,0.000
1444,4164,0.718,0.000,0.000,0.000
1445,4167,0.718,0.000,0.000,0.000
1446,4170,0.709,0.000,0.000,0.000
1447,4173,0.718,0.000,0.000,0.000
1448,4176,0.714,0.000,0.000,0.000
1449,4179,0.709,0.000,0.000,0.000
1450,4182,0.699,0.000,0.000,0.000
1451,4185,0.709,0.000,0.000,0.000
1452,4188,0.709,0.000,0.000,0.000
1453,4191,0.699,0.000,0.000,0.000
1454,4194,0.704,0.000,0.000,0.000
1455,4196,0.709,0.000,0.000,0.000
1456,4199,0.704,0.000,0.000,0.000
1457,4203,0.699,0.000,0.000,0.000
1458,4206,0.699,0.000,0.000,0.000
1459,4209,0.704,0.000,0.000,0.000
1460,4212,0.694,0.000,0.000,0.000
1461,4215,0.699,0.000,0.000,0.000
1462,4218,0.699,0.000,0.000,0.000
1463,4221,0.699,0.000,0.000,0.000
1464,4224,0.694,0.000,0.000,0.000
1465,4226,0.699,0.000,0.000,0.000
1466,4229,0.699,0.000,0.000,0.000
1467,4232,0.689,0.000,0.000,0.000
1468,4235,0.689,0.000,0.000,0.000
1469,4238,0.694,0.000,0.000,0.000
1470,4241,0.694,0.000,0.000,0.000
1471,4245,0.684,0.000,0.000,0.000
1472,4248,0.694,0.000,0.000,0.000
1473,4251,0.689,0.000,0.000,0.000
1474,4254,0.684,0.000,0.000,0.000
1475,4257,0.684,0.000,0.000,0.000
1476,4259,0.684,0.000,0.000,0.000
1477,4262,0.684,0.000,0.000,0.000
1478,4265,0.679,0.000,0.000,0.000
1479,4268,0.684,0.000,0.000,0.000
1480,4271,0.684,0.000,0.000,0.000
1481,4274,0.670,0.000,0.000,0.000
1482,4277,0.679,0.000,0.000,0.000
1483,4280,0.679,0.000,0.000,0.000
1484,4283,0.679,0.000,0.000,0.000
1485,4287,0.670,0.000,0.000,0.000
1486,4290,0.684,0.000,0.000,0.000
1487,4292,0.679,0.000,0.000,0.000
1488,4295,0.665,0.000,0.000,0.000
1489,4298,0.674,0.000,0.000,0.000
1490,4301,0.674,0.000,0.000,0.000
1491,4304,0.670,0.000,0.000,0.000
1492,4307,0.665,0.000,0.000,0.000
1493,4310,0.670,0.000,0.000,0.000
1494,4313,0.670,0.000,0.000,0.000
1495,4316,0.660,0.000,0.000,0.000
1496,4319,0.665,0.000,0.000,0.000
1497,4321,0.660,0.000,0.000,0.000
1498,4324,0.660,0.000,0.000,0.000
1499,4327,0.660,0.000,0.000,0.000
1500,4331,0.660,0.000,0.000,0.000
1501,4334,0.660,0.000,0.000,0.000
1502,4337,0.660,0.000,0.000,0.000
1503,4340,0.660,0.000,0.000,0.000
1504,4343,0.660,0.000,0.000,0.000
1505,4346,0.660,0.000,0.000,0.000
1506,4349,0.655,0.000,0.000,0.000
1507,4352,0.660,0.000,0.000,0.000
1508,4354,0.660,0.000,0.000,0.000
1509,4357,0.645,0.000,0.000,0.000
1510,4360,0.655,0.000,0.000,0.000
1511,4363,0.660,0.000,0.000,0.000
1512,4366,0.655,0.000,0.000,0.000
1513,4369,0.650,0.000,0.000,0.000
1514,4373,0.655,0.000,0.000,0.000
1515,4376,0.655,0.000,0.000,0.000
1516,4379,0.645,0.000,0.000,0.000
1517,4382,0.655,0.000,0.000,0.000
1518,4384,0.655,0.000,0.000,0.000
1519,4387,0.650,0.000,0.000,0.000
1520,4390,0.640,0.000,0.000,0.000
1521,4393,0.645,0.000,0.000,0.000
1522,4396,0.645,0.000,0.000,0.000
1523,4399,0.640,0.000,0.000,0.000
1524,4402,0.645,0.000,0.000,0.000
1525,4405,0.645,0.000,0.000,0.000
1526,4408,0.645,0.000,0.000,0.000
1527,4411,0.640,0.000,0.000,0.000
1528,4415,0.640,0.000,0.000,0.000
1529,4417,0.640,0.000,0.000,0.000
1530,4420,0.630,0.000,0.000,0.000
1531,4423,0.640,0.000,0.000,0.000
1532,4426,0.640,0.000,0.000,0.000
1533,4429,0.640,0.000,0.000,0.000
1534,4432,0.630,0.000,0.000,0.000
1535,4435,0.640,0.000,0.000,0.000
1536,4438,0.640,0.000,0.000,0.000
1537,4441,0.626,0.000,0.000,0.000
1538,4444,0.640,0.000,0.000,0.000
1539,4446,0.640,0.000,0.000,0.000
1540,4449,0.630,0.000,0.000,0.000
1541,4452,0.626,0.000,0.000,0.000
1542,4455,0.630,0.000,0.000,0.000
1543,4459,0.630,0.000,0.000,0.000
1544,4462,0.621,0.000,0.000,0.000
1545,4465,0.630,0.000,0.000,0.000
1546,4468,0.630,0.000,0.000,0.000
1547,4471,0.630,0.000,0.000,0.000
1548,4474,0.621,0.000,0.000,0.000
1549,4477,0.626,0.000,0.000,0.000
1550,4479,0.630,0.000,0.000,0.000
1551,4482,0.621,0.000,0.000,0.000
1552,4485,0.630,0.000,0.000,0.000
1553,4488,0.630,0.000,0.000,0.000
1554,4491,0.621,0.000,0.000,0.000
1555,4494,0.616,0.000,0.000,0.000
1556,4497,0.621,0.000,0.000,0.000
1557,4501,0.621,0.000,0.000,0.000
1558,4504,0.621,0.000,0.000,0.000
1559,4507,0.621,0.000,0.000,0.000
1560,4509,0.621,0.000,0.000,0.000
1561,4512,0.621,0.000,0.000,0.000
1562,4515,0.616,0.000,0.000,0.000
1563,4518,0.621,0.000,0.000,0.000
1564,4521,0.616,0.000,0.000,0.000
1565,4524,0.611,0.000,0.000,0.000
1566,4527,0.621,0.000,0.000,0.000
1567,4530,0.621,0.000,0.000,0.000
1568,4533,0.621,0.000,0.000,0.000
1569,4536,0.611,0.000,0.000,0.000
1570,4539,0.616,0.000,0.000,0.000
1571,4542,0.616,0.000,0.000,0.000
1572,4545,0.606,0.000,0.000,0.000
1573,4548,0.616,0.000,0.000,0.000
1574,4551,0.621,0.000,0.000,0.000
1575,4554,0.616,0.000,0.000,0.000
1576,4557,0.606,0.000,0.000,0.000
1577,4560,0.611,0.000,0.000,0.000
1578,4563,0.616,0.000,0.000,0.000
1579,4566,0.606,0.000,0.000,0.000
1580,4569,0.616,0.000,0.000,0.000
1581,4572,0.616,0.000,0.000,0.000
1582,4574,0.611,0.000,0.000,0.000
1583,4577,0.606,0.000,0.000,0.000
1584,4580,0.611,0.000,0.000,0.000
1585,4583,0.611,0.000,0.000,0.000
1586,4587,0.606,0.000,0.000,0.000
1587,4590,0.611,0.000,0.000,0.000
1588,4593,0.611,0.000,0.000,0.000
1589,4596,0.606,0.000,0.000,0.000
1590,4599,0.601,0.000,0.000,0.000
1591,4602,0.606,0.000,0.000,0.000
1592,4604,0.606,0.000,0.000,0.000
1593,4607,0.601,0.000,0.000,0.000
1594,4610,0.606,0.000,0.000,0.000
1595,4613,0.606,0.000,0.000,0.000
1596,4616,0.606,0.000,0.000,0.000
1597,4619,0.601,0.000,0.000,0.000
1598,4622,0.606,0.000,0.000,0.000
1599,4625,0.606,0.000,0.000,0.000
1600,4629,0.601,0.000,0.000,0.000
1601,4632,0.606,0.000,0.000,0.000
1602,4635,0.606,0.000,0.000,0.000
1603,4637,0.606,0.000,0.000,0.000
1604,4640,0.591,0.000,0.000,0.000
1605,4643,0.606,0.000,0.000,0.000
1606,4646,0.606,0.000,0.000,0.000
1607,4649,0.601,0.000,0.000,0.000
1608,4652,0.601,0.000,0.000,0.000
1609,4655,0.601,0.000,0.000,0.000
1610,4658,0.601,0.000,0.000,0.000
1611,4661,0.591,0.000,0.000,0.000
1612,4664,0.601,0.000,0.000,0.000
1613,4666,0.601,0.000,0.000,0.000
1614,4670,0.596,0.000,0.000,0.000
1615,4673,0.601,0.000,0.000,0.000
1616,4676,0.596,0.000,0.000,0.000
1617,4679,0.601,0.000,0.000,0.000
1618,4682,0.591,0.000,0.000,0.000
1619,4685,0.601,0.000,0.000,0.000
1620,4688,0.601,0.000,0.000,0.000
1621,4691,0.591,0.000,0.000,0.000
1622,4694,0.591,0.000,0.000,0.000
1623,4697,0.591,0.000,0.000,0.000
1624,4699,0.596,0.000,0.000,0.000
1625,4702,0.587,0.000,0.000,0.000
1626,4705,0.596,0.000,0.000,0.000
1627,4708,0.596,0.000,0.000,0.000
1628,4711,0.591,0.000,0.000,0.000
1629,4715,0.591,0.000,0.000,0.000
1630,4718,0.591,0.000,0.000,0.000
1631,4721,0.591,0.000,0.000,0.000
1632,4724,0.587,0.000,0.000,0.000
1633,4727,0.591,0.000,0.000,0.000
1634,4729,0.596,0.000,0.000,0.000
1635,4732,0.591,0.000,0.000,0.000
1636,4735,0.591,0.000,0.000,0.000
1637,4738,0.591,0.000,0.000,0.000
1638,4741,0.591,0.000,0.000,0.000
1639,4744,0.587,0.000,0.000,0.000
1640,4747,0.591,0.000,0.000,0.000
1641,4750,0.591,0.000,0.000,0.000
1642,4753,0.591,0.000,0.000,0.000
1643,4757,0.591,0.000,0.000,0.000
1644,4760,0.591,0.000,0.000,0.000
1645,4762,0.591,0.000,0.000,0.000
1646,4765,0.587,0.000,0.000,0.000
1647,4768,0.591,0.000,0.000,0.000
1648,4771,0.587,0.000,0.000,0.000
1649,4774,0.587,0.000,0.000,0.000
1650,4777,0.591,0.000,0.000,0.000
1651,4780,0.587,0.000,0.000,0.000
1652,4783,0.587,0.000,0.000,0.000
1653,4786,0.587,0.000,0.000,0.000
1654,4789,0.587,0.000,0.000,0.000
1655,4791,0.587,0.000,0.000,0.000
1656,4794,0.587,0.000,0.000,0.000
1657,4798,0.582,0.000,0.000,0.000
1658,4801,0.587,0.000,0.000,0.000
1659,4804,0.587,0.000,0.000,0.000
1660,4807,0.587,0.000,0.000,0.000
1661,4810,0.587,0.000,0.000,0.000
1662,4813,0.587,0.000,0.000,0.000
1663,4816,0.587,0.000,0.000,0.000
1664,4819,0.582,0.000,0.000,0.000
1665,4822,0.587,0.000,0.000,0.000
1666,4824,0.587,0.000,0.000,0.000
1667,4827,0.587,0.000,0.000,0.000
1668,4830,0.587,0.000,0.000,0.000
1669,4833,0.587,0.000,0.000,0.000
1670,4836,0.587,0.000,0.000,0.000
1671,4839,0.582,0.000,0.000,0.000
1672,4843,0.587,0.000,0.000,0.000
1673,4846,0.587,0.000,0.000,0.000
1674,4849,0.582,0.000,0.000,0.000
1675,4852,0.587,0.000,0.000,0.000
1676,4855,0.587,0.000,0.000,0.000
1677,4857,0.587,0.000,0.000,0.000
1678,4860,0.582,0.000,0.000,0.000
1679,4863,0.587,0.000,0.000,0.000
1680,4866,0.587,0.000,0.000,0.000
1681,4869,0.577,0.000,0.000,0.000
1682,4872,0.587,0.000,0.000,0.000
1683,4875,0.587,0.000,0.000,0.000
1684,4878,0.587,0.000,0.000,0.000
1685,4881,0.582,0.000,0.000,0.000
1686,4885,0.587,0.000,0.000,0.000
1687,4887,0.587,0.000,0.000,0.000
1688,4890,0.577,0.000,0.000,0.000
1689,4893,0.587,0.000,0.000,0.000
1690,4896,0.587,0.000,0.000,0.000
1691,4899,0.587,0.000,0.000,0.000
1692,4902,0.577,0.000,0.000,0.000
1693,4905,0.587,0.000,0.000,0.000
1694,4908,0.587,0.000,0.000,0.000
1695,4911,0.577,0.000,0.000,0.000
1696,4914,0.582,0.000,0.000,0.000
1697,4917,0.587,0.000,0.000,0.000
1698,4919,0.587,0.000,0.000,0.000
1699,4922,0.577,0.000,0.000,0.000
1700,4926,0.587,0.000,0.000,0.000
1701,4929,0.587,0.000,0.000,0.000
1702,4932,0.577,0.000,0.000,0.000
1703,4935,0.582,0.000,0.000,0.000
1704,4938,0.587,0.000,0.000,0.000
1705,4941,0.582,0.000,0.000,0.000
1706,4944,0.577,0.000,0.000,0.000
1707,4947,0.587,0.000,0.000,0.000
1708,4949,0.582,0.000,0.000,0.000
1709,4952,0.577,0.000,0.000,0.000
1710,4955,0.582,0.000,0.000,0.000
1711,4958,0.582,0.000,0.000,0.000
1712,4961,0.582,0.000,0.000,0.000
1713,4964,0.577,0.000,0.000,0.000
1714,4967,0.587,0.000,0.000,0.000
1715,4971,0.587,0.000,0.000,0.000
1716,4974,0.577,0.000,0.000,0.000
1717,4977,0.582,0.000,0.000,0.000
1718,4980,0.582,0.000,0.000,0.000
1719,4982,0.577,0.000,0.000,0.000
1720,4985,0.577,0.000,0.000,0.000
1721,4988,0.582,0.000,0.000,0.000
1722,4991,0.582,0.000,0.000,0.000
1723,4994,0.572,0.000,0.000,0.000
1724,4997,0.582,0.000,0.000,0.000
1725,5000,0.582,0.000,0.000,0.000
